# Filter name : Subaru/Suprime.g
# Description : Suprime g' filter (full transmission)
# Photometric system : Suprime
# FilterType : photon
# Band name : ------
# Observatory : Subaru
# Instrument : Suprime
# Comments : ------
# 
3.79000e+03 9.65007e-05
3.80000e+03 1.34215e-04
3.81000e+03 1.39138e-04
3.82000e+03 2.16243e-04
3.83000e+03 3.35893e-04
3.84000e+03 5.79429e-04
3.85000e+03 1.23883e-03
3.86000e+03 2.47924e-03
3.87000e+03 4.69768e-03
3.88000e+03 8.38237e-03
3.89000e+03 1.41680e-02
3.90000e+03 2.27587e-02
3.91000e+03 3.49258e-02
3.92000e+03 5.04554e-02
3.93000e+03 6.91212e-02
3.94000e+03 9.04465e-02
3.95000e+03 1.13834e-01
3.96000e+03 1.39445e-01
3.97000e+03 1.65236e-01
3.98000e+03 1.89713e-01
3.99000e+03 2.14191e-01
4.00000e+03 2.38871e-01
4.01000e+03 2.61932e-01
4.02000e+03 2.87453e-01
4.03000e+03 3.15696e-01
4.04000e+03 3.46416e-01
4.05000e+03 3.74367e-01
4.06000e+03 3.95978e-01
4.07000e+03 4.12758e-01
4.08000e+03 4.25661e-01
4.09000e+03 4.38242e-01
4.10000e+03 4.52372e-01
4.11000e+03 4.67761e-01
4.12000e+03 4.87028e-01
4.13000e+03 5.06029e-01
4.14000e+03 5.21730e-01
4.15000e+03 5.36600e-01
4.16000e+03 5.49612e-01
4.17000e+03 5.60263e-01
4.18000e+03 5.71766e-01
4.19000e+03 5.84155e-01
4.20000e+03 5.93214e-01
4.21000e+03 6.01123e-01
4.22000e+03 6.12343e-01
4.23000e+03 6.24495e-01
4.24000e+03 6.36105e-01
4.25000e+03 6.43760e-01
4.26000e+03 6.51402e-01
4.27000e+03 6.58801e-01
4.28000e+03 6.65066e-01
4.29000e+03 6.73593e-01
4.30000e+03 6.80037e-01
4.31000e+03 6.83314e-01
4.32000e+03 6.86572e-01
4.33000e+03 6.90814e-01
4.34000e+03 6.94981e-01
4.35000e+03 7.01211e-01
4.36000e+03 7.10146e-01
4.37000e+03 7.20222e-01
4.38000e+03 7.31405e-01
4.39000e+03 7.41835e-01
4.40000e+03 7.50670e-01
4.41000e+03 7.58071e-01
4.42000e+03 7.66064e-01
4.43000e+03 7.73141e-01
4.44000e+03 7.77911e-01
4.45000e+03 7.85751e-01
4.46000e+03 7.94020e-01
4.47000e+03 7.99052e-01
4.48000e+03 8.02762e-01
4.49000e+03 8.08812e-01
4.50000e+03 8.14706e-01
4.51000e+03 8.17162e-01
4.52000e+03 8.20337e-01
4.53000e+03 8.21715e-01
4.54000e+03 8.26179e-01
4.55000e+03 8.30380e-01
4.56000e+03 8.29553e-01
4.57000e+03 8.30630e-01
4.58000e+03 8.36158e-01
4.59000e+03 8.43095e-01
4.60000e+03 8.49047e-01
4.61000e+03 8.55767e-01
4.62000e+03 8.61867e-01
4.63000e+03 8.66946e-01
4.64000e+03 8.71771e-01
4.65000e+03 8.75846e-01
4.66000e+03 8.79946e-01
4.67000e+03 8.79855e-01
4.68000e+03 8.78616e-01
4.69000e+03 8.79744e-01
4.70000e+03 8.82402e-01
4.71000e+03 8.83468e-01
4.72000e+03 8.84893e-01
4.73000e+03 8.88555e-01
4.74000e+03 8.92822e-01
4.75000e+03 8.96505e-01
4.76000e+03 8.98051e-01
4.77000e+03 8.99495e-01
4.78000e+03 9.02108e-01
4.79000e+03 9.03846e-01
4.80000e+03 9.06587e-01
4.81000e+03 9.12536e-01
4.82000e+03 9.18599e-01
4.83000e+03 9.25006e-01
4.84000e+03 9.32017e-01
4.85000e+03 9.37672e-01
4.86000e+03 9.41946e-01
4.87000e+03 9.46722e-01
4.88000e+03 9.49504e-01
4.89000e+03 9.49556e-01
4.90000e+03 9.46353e-01
4.91000e+03 9.44805e-01
4.92000e+03 9.45079e-01
4.93000e+03 9.41651e-01
4.94000e+03 9.38521e-01
4.95000e+03 9.37127e-01
4.96000e+03 9.37251e-01
4.97000e+03 9.38932e-01
4.98000e+03 9.40495e-01
4.99000e+03 9.39156e-01
5.00000e+03 9.41439e-01
5.01000e+03 9.46879e-01
5.02000e+03 9.52540e-01
5.03000e+03 9.58963e-01
5.04000e+03 9.60673e-01
5.05000e+03 9.64710e-01
5.06000e+03 9.70124e-01
5.07000e+03 9.75244e-01
5.08000e+03 9.80055e-01
5.09000e+03 9.83616e-01
5.10000e+03 9.88902e-01
5.11000e+03 9.92972e-01
5.12000e+03 9.95558e-01
5.13000e+03 9.96981e-01
5.14000e+03 1.00000e+00
5.15130e+03 9.99835e-01
5.16100e+03 9.98713e-01
5.17070e+03 9.96981e-01
5.18050e+03 9.94457e-01
5.19020e+03 9.91756e-01
5.19990e+03 9.89483e-01
5.20970e+03 9.88619e-01
5.21940e+03 9.88215e-01
5.22920e+03 9.88714e-01
5.23890e+03 9.90015e-01
5.24860e+03 9.91578e-01
5.25840e+03 9.93125e-01
5.26810e+03 9.94882e-01
5.27780e+03 9.96841e-01
5.28760e+03 9.98478e-01
5.29730e+03 9.98847e-01
5.30700e+03 9.92304e-01
5.31680e+03 9.79692e-01
5.32650e+03 9.58112e-01
5.33620e+03 9.24449e-01
5.34600e+03 8.76533e-01
5.35570e+03 8.13974e-01
5.36550e+03 7.40410e-01
5.37520e+03 6.56419e-01
5.38490e+03 5.66914e-01
5.39470e+03 4.77245e-01
5.40440e+03 3.92186e-01
5.41410e+03 3.15468e-01
5.42390e+03 2.49706e-01
5.43360e+03 1.95549e-01
5.44330e+03 1.52202e-01
5.45310e+03 1.18194e-01
5.46280e+03 9.18671e-02
5.47250e+03 7.17325e-02
5.48230e+03 5.63952e-02
5.49200e+03 4.46785e-02
5.50180e+03 3.56374e-02
5.51150e+03 2.85958e-02
5.52120e+03 2.30946e-02
5.53100e+03 1.87260e-02
5.54070e+03 1.52533e-02
5.55040e+03 1.24618e-02
5.56020e+03 1.02165e-02
5.56990e+03 8.43842e-03
5.57960e+03 6.97932e-03
5.58940e+03 5.78274e-03
5.59910e+03 4.81489e-03
5.60880e+03 4.03022e-03
5.61860e+03 3.14983e-03
5.62830e+03 2.30177e-03
5.63810e+03 1.61487e-03
5.64780e+03 1.05479e-03
5.65750e+03 5.86890e-04
5.66730e+03 1.76338e-04
