# Filter name : JWST/MIRI.F560W
# Description : MIRI F560W filter
# Photometric system : MIRI
# FilterType : photon
# Band name : ------
# Observatory : JWST
# Instrument : MIRI
# Comments : nominal transmission of the JWST OTE is not included
# 
4.75300e+04 1.00000e-04
4.75800e+04 1.00000e-04
4.76400e+04 1.00000e-04
4.77000e+04 1.00000e-04
4.77600e+04 1.00000e-04
4.78200e+04 1.00000e-04
4.78700e+04 1.00000e-04
4.79300e+04 1.00000e-04
4.79900e+04 1.00000e-04
4.80500e+04 2.00000e-04
4.81100e+04 2.00000e-04
4.81600e+04 3.00000e-04
4.82200e+04 3.00000e-04
4.82800e+04 4.00000e-04
4.83400e+04 5.00000e-04
4.84000e+04 6.00000e-04
4.84500e+04 9.00000e-04
4.85100e+04 1.10000e-03
4.85700e+04 1.40000e-03
4.86300e+04 1.70000e-03
4.86900e+04 2.20000e-03
4.87400e+04 2.60000e-03
4.88000e+04 3.10000e-03
4.88600e+04 3.50000e-03
4.89200e+04 4.00000e-03
4.89800e+04 4.40000e-03
4.90300e+04 4.70000e-03
4.90900e+04 5.00000e-03
4.91500e+04 5.30000e-03
4.92100e+04 5.60000e-03
4.92700e+04 6.00000e-03
4.93200e+04 6.40000e-03
4.93800e+04 6.80000e-03
4.94400e+04 7.50000e-03
4.95000e+04 8.30000e-03
4.95600e+04 9.20000e-03
4.96100e+04 1.03000e-02
4.96700e+04 1.21000e-02
4.97300e+04 1.39000e-02
4.97900e+04 1.58000e-02
4.98500e+04 1.94000e-02
4.99000e+04 2.34000e-02
4.99600e+04 2.74000e-02
5.00200e+04 3.32000e-02
5.00800e+04 4.21000e-02
5.01400e+04 5.11000e-02
5.01900e+04 6.01000e-02
5.02500e+04 7.64000e-02
5.03100e+04 9.35000e-02
5.03700e+04 1.10700e-01
5.04300e+04 1.30200e-01
5.04800e+04 1.52500e-01
5.05400e+04 1.74900e-01
5.06000e+04 1.97400e-01
5.06600e+04 2.12300e-01
5.07200e+04 2.27300e-01
5.07700e+04 2.42400e-01
5.08300e+04 2.50700e-01
5.08900e+04 2.53600e-01
5.09500e+04 2.56500e-01
5.10100e+04 2.58900e-01
5.10600e+04 2.56800e-01
5.11200e+04 2.54700e-01
5.11800e+04 2.52500e-01
5.12400e+04 2.50500e-01
5.13000e+04 2.48600e-01
5.13500e+04 2.46700e-01
5.14100e+04 2.45200e-01
5.14700e+04 2.45300e-01
5.15300e+04 2.45400e-01
5.15900e+04 2.45500e-01
5.16400e+04 2.47600e-01
5.17000e+04 2.50300e-01
5.17600e+04 2.53000e-01
5.18200e+04 2.56200e-01
5.18800e+04 2.60500e-01
5.19300e+04 2.64800e-01
5.19900e+04 2.69200e-01
5.20500e+04 2.72600e-01
5.21100e+04 2.76000e-01
5.21700e+04 2.79400e-01
5.22200e+04 2.81500e-01
5.22800e+04 2.81700e-01
5.23400e+04 2.82000e-01
5.24000e+04 2.82300e-01
5.24600e+04 2.79600e-01
5.25100e+04 2.76700e-01
5.25700e+04 2.73800e-01
5.26300e+04 2.70400e-01
5.26900e+04 2.66400e-01
5.27500e+04 2.62500e-01
5.28000e+04 2.58500e-01
5.28600e+04 2.55100e-01
5.29200e+04 2.51800e-01
5.29800e+04 2.48400e-01
5.30400e+04 2.45900e-01
5.30900e+04 2.43900e-01
5.31500e+04 2.42000e-01
5.32100e+04 2.40400e-01
5.32700e+04 2.40700e-01
5.33300e+04 2.41000e-01
5.33800e+04 2.41300e-01
5.34400e+04 2.43100e-01
5.35000e+04 2.45400e-01
5.35600e+04 2.47800e-01
5.36200e+04 2.50300e-01
5.36700e+04 2.53400e-01
5.37300e+04 2.56400e-01
5.37900e+04 2.59500e-01
5.38500e+04 2.63400e-01
5.39100e+04 2.67400e-01
5.39600e+04 2.71400e-01
5.40200e+04 2.75600e-01
5.40800e+04 2.80000e-01
5.41400e+04 2.84400e-01
5.42000e+04 2.88900e-01
5.42500e+04 2.90100e-01
5.43100e+04 2.91100e-01
5.43700e+04 2.92000e-01
5.44300e+04 2.92300e-01
5.44900e+04 2.92000e-01
5.45400e+04 2.91600e-01
5.46000e+04 2.91100e-01
5.46600e+04 2.88600e-01
5.47200e+04 2.86000e-01
5.47800e+04 2.83400e-01
5.48300e+04 2.80300e-01
5.48900e+04 2.76800e-01
5.49500e+04 2.73200e-01
5.50100e+04 2.70000e-01
5.50700e+04 2.68300e-01
5.51200e+04 2.66700e-01
5.51800e+04 2.65100e-01
5.52400e+04 2.64600e-01
5.53000e+04 2.64600e-01
5.53600e+04 2.64600e-01
5.54100e+04 2.65300e-01
5.54700e+04 2.68200e-01
5.55300e+04 2.71100e-01
5.55900e+04 2.74000e-01
5.56500e+04 2.78700e-01
5.57000e+04 2.83800e-01
5.57600e+04 2.88900e-01
5.58200e+04 2.93600e-01
5.58800e+04 2.97600e-01
5.59400e+04 3.01600e-01
5.59900e+04 3.05600e-01
5.60500e+04 3.09600e-01
5.61100e+04 3.13500e-01
5.61700e+04 3.17500e-01
5.62300e+04 3.20700e-01
5.62800e+04 3.23000e-01
5.63400e+04 3.25400e-01
5.64000e+04 3.27700e-01
5.64600e+04 3.25800e-01
5.65200e+04 3.24000e-01
5.65700e+04 3.22100e-01
5.66300e+04 3.20300e-01
5.66900e+04 3.18500e-01
5.67500e+04 3.16700e-01
5.68100e+04 3.15000e-01
5.68600e+04 3.13300e-01
5.69200e+04 3.11700e-01
5.69800e+04 3.10100e-01
5.70400e+04 3.10100e-01
5.71000e+04 3.11000e-01
5.71500e+04 3.11800e-01
5.72100e+04 3.12700e-01
5.72700e+04 3.13300e-01
5.73300e+04 3.14000e-01
5.73900e+04 3.14700e-01
5.74400e+04 3.16600e-01
5.75000e+04 3.18900e-01
5.75600e+04 3.21200e-01
5.76200e+04 3.23300e-01
5.76800e+04 3.25000e-01
5.77300e+04 3.26700e-01
5.77900e+04 3.28300e-01
5.78500e+04 3.29100e-01
5.79100e+04 3.29800e-01
5.79700e+04 3.30500e-01
5.80200e+04 3.32100e-01
5.80800e+04 3.35000e-01
5.81400e+04 3.37800e-01
5.82000e+04 3.40700e-01
5.82600e+04 3.39900e-01
5.83100e+04 3.38900e-01
5.83700e+04 3.37900e-01
5.84300e+04 3.37500e-01
5.84900e+04 3.37800e-01
5.85500e+04 3.38100e-01
5.86000e+04 3.38500e-01
5.86600e+04 3.39500e-01
5.87200e+04 3.40500e-01
5.87800e+04 3.41600e-01
5.88400e+04 3.40100e-01
5.88900e+04 3.37200e-01
5.89500e+04 3.34300e-01
5.90100e+04 3.31400e-01
5.90700e+04 3.28500e-01
5.91300e+04 3.25500e-01
5.91800e+04 3.22500e-01
5.92400e+04 3.21800e-01
5.93000e+04 3.21800e-01
5.93600e+04 3.21900e-01
5.94200e+04 3.21100e-01
5.94700e+04 3.18100e-01
5.95300e+04 3.15000e-01
5.95900e+04 3.11900e-01
5.96500e+04 3.12100e-01
5.97100e+04 3.13100e-01
5.97600e+04 3.14000e-01
5.98200e+04 3.15000e-01
5.98800e+04 3.16100e-01
5.99400e+04 3.17100e-01
6.00000e+04 3.18200e-01
6.00500e+04 3.20200e-01
6.01100e+04 3.22200e-01
6.01700e+04 3.24300e-01
6.02300e+04 3.26600e-01
6.02900e+04 3.29100e-01
6.03400e+04 3.31700e-01
6.04000e+04 3.34100e-01
6.04600e+04 3.34900e-01
6.05200e+04 3.35600e-01
6.05800e+04 3.36300e-01
6.06300e+04 3.35500e-01
6.06900e+04 3.33800e-01
6.07500e+04 3.32100e-01
6.08100e+04 3.30000e-01
6.08700e+04 3.25700e-01
6.09200e+04 3.21500e-01
6.09800e+04 3.17300e-01
6.10400e+04 3.12000e-01
6.11000e+04 3.06200e-01
6.11600e+04 3.00400e-01
6.12100e+04 2.93000e-01
6.12700e+04 2.80600e-01
6.13300e+04 2.68200e-01
6.13900e+04 2.55800e-01
6.14500e+04 2.41000e-01
6.15000e+04 2.25700e-01
6.15600e+04 2.10300e-01
6.16200e+04 1.94600e-01
6.16800e+04 1.78400e-01
6.17400e+04 1.62200e-01
6.17900e+04 1.45900e-01
6.18500e+04 1.32100e-01
6.19100e+04 1.18600e-01
6.19700e+04 1.05000e-01
6.20300e+04 9.36000e-02
6.20800e+04 8.48000e-02
6.21400e+04 7.61000e-02
6.22000e+04 6.73000e-02
6.22600e+04 6.18000e-02
6.23200e+04 5.63000e-02
6.23700e+04 5.09000e-02
6.24300e+04 4.66000e-02
6.24900e+04 4.33000e-02
6.25500e+04 4.01000e-02
6.26100e+04 3.69000e-02
6.26600e+04 3.49000e-02
6.27200e+04 3.29000e-02
6.27800e+04 3.09000e-02
6.28400e+04 2.93000e-02
6.29000e+04 2.80000e-02
6.29500e+04 2.66000e-02
6.30100e+04 2.53000e-02
6.30700e+04 2.42000e-02
6.31300e+04 2.30000e-02
6.31900e+04 2.19000e-02
6.32400e+04 2.07000e-02
6.33000e+04 1.95000e-02
6.33600e+04 1.83000e-02
6.34200e+04 1.70000e-02
6.34800e+04 1.56000e-02
6.35300e+04 1.42000e-02
6.35900e+04 1.28000e-02
6.36500e+04 1.15000e-02
6.37100e+04 1.03000e-02
6.37700e+04 9.10000e-03
6.38200e+04 8.10000e-03
6.38800e+04 7.20000e-03
6.39400e+04 6.40000e-03
6.40000e+04 5.50000e-03
6.40600e+04 5.00000e-03
6.41100e+04 4.50000e-03
6.41700e+04 3.90000e-03
6.42300e+04 3.50000e-03
6.42900e+04 3.10000e-03
6.43500e+04 2.70000e-03
6.44000e+04 2.40000e-03
6.44600e+04 2.20000e-03
6.45200e+04 2.00000e-03
6.45800e+04 1.80000e-03
6.46400e+04 1.60000e-03
6.46900e+04 1.50000e-03
6.47500e+04 1.40000e-03
6.48100e+04 1.30000e-03
6.48700e+04 1.20000e-03
6.49300e+04 1.20000e-03
6.49800e+04 1.10000e-03
6.50400e+04 1.10000e-03
6.51000e+04 1.00000e-03
6.51600e+04 1.00000e-03
6.52200e+04 9.00000e-04
6.52700e+04 9.00000e-04
6.53300e+04 9.00000e-04
6.53900e+04 8.00000e-04
6.54500e+04 8.00000e-04
6.55100e+04 8.00000e-04
6.55600e+04 8.00000e-04
6.56200e+04 8.00000e-04
6.56800e+04 8.00000e-04
6.57400e+04 7.00000e-04
6.58000e+04 7.00000e-04
6.58500e+04 7.00000e-04
6.59100e+04 7.00000e-04
6.59700e+04 7.00000e-04
6.60300e+04 7.00000e-04
6.60900e+04 6.00000e-04
6.61400e+04 6.00000e-04
6.62000e+04 5.00000e-04
6.62600e+04 5.00000e-04
6.63200e+04 5.00000e-04
6.63800e+04 4.00000e-04
6.64300e+04 4.00000e-04
6.64900e+04 3.00000e-04
6.65500e+04 3.00000e-04
6.66100e+04 3.00000e-04
6.66700e+04 2.00000e-04
6.67200e+04 2.00000e-04
6.67800e+04 1.00000e-04
6.68400e+04 1.00000e-04
6.69000e+04 1.00000e-04
6.69600e+04 1.00000e-04
