# Filter name : CTIO/DECam.r
# Description : DECam r filter (total transmission). DR1
# Photometric system : DECam
# FilterType : photon
# Band name : r
# Observatory : CTIO
# Instrument : DECam
# Comments : The system response includes the total throughput of the system (instrument + atmosphere). 
# 
5.40000e+03 0.00000e+00
5.40500e+03 1.15000e-03
5.41000e+03 2.29000e-03
5.41500e+03 2.43000e-03
5.42000e+03 2.57000e-03
5.42500e+03 2.76000e-03
5.43000e+03 2.96000e-03
5.43500e+03 3.15000e-03
5.44000e+03 3.35000e-03
5.44500e+03 3.59000e-03
5.45000e+03 3.83000e-03
5.45500e+03 4.07000e-03
5.46000e+03 4.31000e-03
5.46500e+03 4.55000e-03
5.47000e+03 4.81000e-03
5.47500e+03 5.05000e-03
5.48000e+03 5.30000e-03
5.48500e+03 5.67000e-03
5.49000e+03 6.03000e-03
5.49500e+03 6.40000e-03
5.50000e+03 6.76000e-03
5.50500e+03 7.18000e-03
5.51000e+03 7.61000e-03
5.51500e+03 8.03000e-03
5.52000e+03 8.46000e-03
5.52500e+03 8.97000e-03
5.53000e+03 9.48000e-03
5.53500e+03 1.00000e-02
5.54000e+03 1.05100e-02
5.54500e+03 1.12100e-02
5.55000e+03 1.19100e-02
5.55500e+03 1.26100e-02
5.56000e+03 1.33100e-02
5.56500e+03 1.42500e-02
5.57000e+03 1.51800e-02
5.57500e+03 1.61200e-02
5.58000e+03 1.70500e-02
5.58500e+03 1.85400e-02
5.59000e+03 2.00400e-02
5.59500e+03 2.15400e-02
5.60000e+03 2.30300e-02
5.60500e+03 2.66900e-02
5.61000e+03 3.03500e-02
5.61500e+03 3.40200e-02
5.62000e+03 3.76800e-02
5.62500e+03 5.11900e-02
5.63000e+03 6.47200e-02
5.63500e+03 7.82200e-02
5.64000e+03 9.17300e-02
5.64500e+03 1.35560e-01
5.65000e+03 1.79410e-01
5.65500e+03 2.23280e-01
5.66000e+03 2.67160e-01
5.66500e+03 3.35160e-01
5.67000e+03 4.03150e-01
5.67500e+03 4.71000e-01
5.68000e+03 5.38760e-01
5.68500e+03 5.70480e-01
5.69000e+03 6.02300e-01
5.69500e+03 6.34280e-01
5.70000e+03 6.66410e-01
5.70500e+03 6.71550e-01
5.71000e+03 6.76760e-01
5.71500e+03 6.81560e-01
5.72000e+03 6.86240e-01
5.72500e+03 6.88010e-01
5.73000e+03 6.89860e-01
5.73500e+03 6.91770e-01
5.74000e+03 6.93620e-01
5.74500e+03 6.95380e-01
5.75000e+03 6.97350e-01
5.75500e+03 6.99470e-01
5.76000e+03 7.01520e-01
5.76500e+03 7.03100e-01
5.77000e+03 7.04610e-01
5.77500e+03 7.06200e-01
5.78000e+03 7.07930e-01
5.78500e+03 7.09210e-01
5.79000e+03 7.10410e-01
5.79500e+03 7.11680e-01
5.80000e+03 7.12890e-01
5.80500e+03 7.15180e-01
5.81000e+03 7.17550e-01
5.81500e+03 7.19920e-01
5.82000e+03 7.22150e-01
5.82500e+03 7.23180e-01
5.83000e+03 7.24130e-01
5.83500e+03 7.25230e-01
5.84000e+03 7.26110e-01
5.84500e+03 7.25830e-01
5.85000e+03 7.25710e-01
5.85500e+03 7.25430e-01
5.86000e+03 7.25000e-01
5.86500e+03 7.24060e-01
5.87000e+03 7.23190e-01
5.87500e+03 7.21880e-01
5.88000e+03 7.20070e-01
5.88500e+03 7.18570e-01
5.89000e+03 7.17280e-01
5.89500e+03 7.17370e-01
5.90000e+03 7.17610e-01
5.90500e+03 7.20250e-01
5.91000e+03 7.22890e-01
5.91500e+03 7.23930e-01
5.92000e+03 7.24460e-01
5.92500e+03 7.25750e-01
5.93000e+03 7.28430e-01
5.93500e+03 7.30010e-01
5.94000e+03 7.29550e-01
5.94500e+03 7.27180e-01
5.95000e+03 7.27980e-01
5.95500e+03 7.29870e-01
5.96000e+03 7.30360e-01
5.96500e+03 7.30760e-01
5.97000e+03 7.30650e-01
5.97500e+03 7.31120e-01
5.98000e+03 7.31880e-01
5.98500e+03 7.33460e-01
5.99000e+03 7.34440e-01
5.99500e+03 7.35720e-01
6.00000e+03 7.36930e-01
6.00500e+03 7.38190e-01
6.01000e+03 7.39460e-01
6.01500e+03 7.40570e-01
6.02000e+03 7.41840e-01
6.02500e+03 7.42000e-01
6.03000e+03 7.42230e-01
6.03500e+03 7.44030e-01
6.04000e+03 7.45900e-01
6.04500e+03 7.46420e-01
6.05000e+03 7.46870e-01
6.05500e+03 7.47400e-01
6.06000e+03 7.48000e-01
6.06500e+03 7.47940e-01
6.07000e+03 7.47960e-01
6.07500e+03 7.48060e-01
6.08000e+03 7.48080e-01
6.08500e+03 7.48780e-01
6.09000e+03 7.49550e-01
6.09500e+03 7.50170e-01
6.10000e+03 7.50940e-01
6.10500e+03 7.52870e-01
6.11000e+03 7.54650e-01
6.11500e+03 7.56580e-01
6.12000e+03 7.58360e-01
6.12500e+03 7.60040e-01
6.13000e+03 7.61720e-01
6.13500e+03 7.63480e-01
6.14000e+03 7.65170e-01
6.14500e+03 7.66080e-01
6.15000e+03 7.66920e-01
6.15500e+03 7.67840e-01
6.16000e+03 7.68760e-01
6.16500e+03 7.69820e-01
6.17000e+03 7.70790e-01
6.17500e+03 7.71770e-01
6.18000e+03 7.72830e-01
6.18500e+03 7.73180e-01
6.19000e+03 7.73600e-01
6.19500e+03 7.73950e-01
6.20000e+03 7.74130e-01
6.20500e+03 7.74660e-01
6.21000e+03 7.75190e-01
6.21500e+03 7.75800e-01
6.22000e+03 7.76240e-01
6.22500e+03 7.77020e-01
6.23000e+03 7.77710e-01
6.23500e+03 7.78490e-01
6.24000e+03 7.79190e-01
6.24500e+03 7.79680e-01
6.25000e+03 7.80260e-01
6.25500e+03 7.80760e-01
6.26000e+03 7.81180e-01
6.26500e+03 7.81700e-01
6.27000e+03 7.81270e-01
6.27500e+03 7.73710e-01
6.28000e+03 7.61760e-01
6.28500e+03 7.66740e-01
6.29000e+03 7.75180e-01
6.29500e+03 7.76020e-01
6.30000e+03 7.77800e-01
6.30500e+03 7.81300e-01
6.31000e+03 7.84180e-01
6.31500e+03 7.86580e-01
6.32000e+03 7.88600e-01
6.32500e+03 7.90010e-01
6.33000e+03 7.91030e-01
6.33500e+03 7.91900e-01
6.34000e+03 7.92450e-01
6.34500e+03 7.93660e-01
6.35000e+03 7.94870e-01
6.35500e+03 7.96250e-01
6.36000e+03 7.97380e-01
6.36500e+03 7.98780e-01
6.37000e+03 7.99860e-01
6.37500e+03 8.01260e-01
6.38000e+03 8.02590e-01
6.38500e+03 8.03090e-01
6.39000e+03 8.03430e-01
6.39500e+03 8.03940e-01
6.40000e+03 8.04280e-01
6.40500e+03 8.04910e-01
6.41000e+03 8.05540e-01
6.41500e+03 8.06180e-01
6.42000e+03 8.06730e-01
6.42500e+03 8.06970e-01
6.43000e+03 8.07300e-01
6.43500e+03 8.07460e-01
6.44000e+03 8.07710e-01
6.44500e+03 8.07790e-01
6.45000e+03 8.07870e-01
6.45500e+03 8.07700e-01
6.46000e+03 8.07210e-01
6.46500e+03 8.06900e-01
6.47000e+03 8.06180e-01
6.47500e+03 8.05300e-01
6.48000e+03 8.05640e-01
6.48500e+03 8.06670e-01
6.49000e+03 8.07610e-01
6.49500e+03 8.08320e-01
6.50000e+03 8.10080e-01
6.50500e+03 8.11600e-01
6.51000e+03 8.11420e-01
6.51500e+03 8.09200e-01
6.52000e+03 8.08700e-01
6.52500e+03 8.12050e-01
6.53000e+03 8.14520e-01
6.53500e+03 8.15510e-01
6.54000e+03 8.16680e-01
6.54500e+03 8.17200e-01
6.55000e+03 8.17890e-01
6.55500e+03 8.19230e-01
6.56000e+03 8.20910e-01
6.56500e+03 8.22040e-01
6.57000e+03 8.23010e-01
6.57500e+03 8.23560e-01
6.58000e+03 8.24690e-01
6.58500e+03 8.25400e-01
6.59000e+03 8.26100e-01
6.59500e+03 8.26890e-01
6.60000e+03 8.27180e-01
6.60500e+03 8.27400e-01
6.61000e+03 8.27700e-01
6.61500e+03 8.27990e-01
6.62000e+03 8.28130e-01
6.62500e+03 8.27880e-01
6.63000e+03 8.27470e-01
6.63500e+03 8.27390e-01
6.64000e+03 8.27060e-01
6.64500e+03 8.27370e-01
6.65000e+03 8.27670e-01
6.65500e+03 8.28070e-01
6.66000e+03 8.28380e-01
6.66500e+03 8.29630e-01
6.67000e+03 8.30880e-01
6.67500e+03 8.32130e-01
6.68000e+03 8.33300e-01
6.68500e+03 8.34540e-01
6.69000e+03 8.35610e-01
6.69500e+03 8.36770e-01
6.70000e+03 8.37920e-01
6.70500e+03 8.38380e-01
6.71000e+03 8.38920e-01
6.71500e+03 8.39550e-01
6.72000e+03 8.40000e-01
6.72500e+03 8.40070e-01
6.73000e+03 8.40060e-01
6.73500e+03 8.40130e-01
6.74000e+03 8.40120e-01
6.74500e+03 8.40030e-01
6.75000e+03 8.39860e-01
6.75500e+03 8.39510e-01
6.76000e+03 8.39340e-01
6.76500e+03 8.39470e-01
6.77000e+03 8.39610e-01
6.77500e+03 8.39910e-01
6.78000e+03 8.40050e-01
6.78500e+03 8.40680e-01
6.79000e+03 8.41310e-01
6.79500e+03 8.42120e-01
6.80000e+03 8.42750e-01
6.80500e+03 8.42960e-01
6.81000e+03 8.43340e-01
6.81500e+03 8.43720e-01
6.82000e+03 8.44100e-01
6.82500e+03 8.44440e-01
6.83000e+03 8.44780e-01
6.83500e+03 8.45110e-01
6.84000e+03 8.45280e-01
6.84500e+03 8.45490e-01
6.85000e+03 8.45700e-01
6.85500e+03 8.45740e-01
6.86000e+03 8.41040e-01
6.86500e+03 7.97780e-01
6.87000e+03 6.91070e-01
6.87500e+03 6.40950e-01
6.88000e+03 6.98180e-01
6.88500e+03 7.45690e-01
6.89000e+03 7.32960e-01
6.89500e+03 7.32420e-01
6.90000e+03 7.49990e-01
6.90500e+03 7.63820e-01
6.91000e+03 7.79930e-01
6.91500e+03 7.92310e-01
6.92000e+03 8.03010e-01
6.92500e+03 8.14060e-01
6.93000e+03 8.22420e-01
6.93500e+03 8.25880e-01
6.94000e+03 8.26640e-01
6.94500e+03 8.28350e-01
6.95000e+03 8.31250e-01
6.95500e+03 8.32910e-01
6.96000e+03 8.32620e-01
6.96500e+03 8.36420e-01
6.97000e+03 8.40980e-01
6.97500e+03 8.41900e-01
6.98000e+03 8.41140e-01
6.98500e+03 8.38940e-01
6.99000e+03 8.35810e-01
6.99500e+03 8.35880e-01
7.00000e+03 8.37570e-01
7.00500e+03 8.37970e-01
7.01000e+03 8.37960e-01
7.01500e+03 8.38530e-01
7.02000e+03 8.39110e-01
7.02500e+03 8.37940e-01
7.03000e+03 8.37780e-01
7.03500e+03 8.39380e-01
7.04000e+03 8.37950e-01
7.04500e+03 8.36370e-01
7.05000e+03 8.34700e-01
7.05500e+03 8.32620e-01
7.06000e+03 8.31450e-01
7.06500e+03 8.27940e-01
7.07000e+03 8.24420e-01
7.07500e+03 8.20310e-01
7.08000e+03 8.16210e-01
7.08500e+03 8.10380e-01
7.09000e+03 8.04300e-01
7.09500e+03 7.97970e-01
7.10000e+03 7.91240e-01
7.10500e+03 7.85510e-01
7.11000e+03 7.80010e-01
7.11500e+03 7.74510e-01
7.12000e+03 7.68850e-01
7.12500e+03 7.38310e-01
7.13000e+03 7.07560e-01
7.13500e+03 6.77170e-01
7.14000e+03 6.46710e-01
7.14500e+03 5.75800e-01
7.15000e+03 5.04830e-01
7.15500e+03 4.34260e-01
7.16000e+03 3.63300e-01
7.16500e+03 3.04350e-01
7.17000e+03 2.43910e-01
7.17500e+03 1.85420e-01
7.18000e+03 1.29880e-01
7.18500e+03 1.06220e-01
7.19000e+03 8.36300e-02
7.19500e+03 6.21000e-02
7.20000e+03 4.04600e-02
7.20500e+03 3.36000e-02
7.21000e+03 2.69900e-02
7.21500e+03 2.00300e-02
7.22000e+03 1.25600e-02
7.22500e+03 1.11400e-02
7.23000e+03 9.61000e-03
7.23500e+03 8.06000e-03
7.24000e+03 6.71000e-03
7.24500e+03 5.68000e-03
7.25000e+03 4.66000e-03
7.25500e+03 3.63000e-03
7.26000e+03 2.60000e-03
7.26500e+03 2.25000e-03
7.27000e+03 1.91000e-03
7.27500e+03 1.55000e-03
7.28000e+03 1.21000e-03
7.28500e+03 1.10000e-03
7.29000e+03 9.60000e-04
7.29500e+03 8.30000e-04
7.30000e+03 7.10000e-04
7.30500e+03 6.60000e-04
7.31000e+03 6.10000e-04
7.31500e+03 5.60000e-04
7.32000e+03 5.20000e-04
7.32500e+03 4.90000e-04
7.33000e+03 4.60000e-04
7.33500e+03 4.30000e-04
7.34000e+03 4.00000e-04
7.34500e+03 2.00000e-04
7.35000e+03 0.00000e+00
